Thrust [N], tau_x [Nm], tau_y [Nm], tau_z [Nm]
3.816581, 0.000194, -0.000387 ,0.000113
3.817279, 0.000194, -0.000387 ,0.000112
3.817990, 0.000194, -0.000387 ,0.000110
3.818713, 0.000194, -0.000387 ,0.000109
3.819448, 0.000194, -0.000386 ,0.000107
3.820196, 0.000194, -0.000386 ,0.000106
3.820956, 0.000194, -0.000386 ,0.000105
3.821728, 0.000194, -0.000385 ,0.000103
3.822510, 0.000194, -0.000385 ,0.000102
3.823305, 0.000194, -0.000385 ,0.000100
3.824110, 0.000194, -0.000384 ,0.000099
3.824927, 0.000194, -0.000384 ,0.000097
3.825755, 0.000194, -0.000383 ,0.000096
3.826593, 0.000194, -0.000383 ,0.000095
3.827442, 0.000194, -0.000383 ,0.000093
3.828301, 0.000194, -0.000382 ,0.000092
3.829170, 0.000194, -0.000382 ,0.000091
3.830049, 0.000194, -0.000381 ,0.000089
3.830938, 0.000194, -0.000381 ,0.000088
3.831836, 0.000194, -0.000380 ,0.000087
3.832744, 0.000194, -0.000380 ,0.000085
3.833661, 0.000194, -0.000379 ,0.000084
3.834587, 0.000194, -0.000379 ,0.000083
3.835523, 0.000194, -0.000378 ,0.000081
3.836467, 0.000194, -0.000378 ,0.000080
3.837420, 0.000194, -0.000377 ,0.000079
3.838380, 0.000193, -0.000377 ,0.000078
3.839350, 0.000193, -0.000376 ,0.000076
3.840327, 0.000193, -0.000375 ,0.000075
3.841312, 0.000193, -0.000375 ,0.000074
3.842305, 0.000193, -0.000374 ,0.000073
3.843306, 0.000193, -0.000374 ,0.000071
3.844314, 0.000193, -0.000373 ,0.000070
3.845330, 0.000192, -0.000372 ,0.000069
3.846352, 0.000192, -0.000372 ,0.000068
3.847382, 0.000192, -0.000371 ,0.000067
3.848418, 0.000192, -0.000371 ,0.000065
3.849461, 0.000192, -0.000370 ,0.000064
3.850511, 0.000191, -0.000369 ,0.000063
3.851567, 0.000191, -0.000369 ,0.000062
3.852629, 0.000191, -0.000368 ,0.000061
3.853698, 0.000191, -0.000367 ,0.000060
3.854772, 0.000190, -0.000367 ,0.000059
3.855852, 0.000190, -0.000366 ,0.000057
3.856937, 0.000190, -0.000365 ,0.000056
3.858028, 0.000190, -0.000364 ,0.000055
3.859125, 0.000189, -0.000364 ,0.000054
3.860227, 0.000189, -0.000363 ,0.000053
3.861334, 0.000189, -0.000362 ,0.000052
3.862445, 0.000189, -0.000362 ,0.000051
3.863562, 0.000188, -0.000361 ,0.000050
3.864683, 0.000188, -0.000360 ,0.000049
3.865808, 0.000188, -0.000359 ,0.000048
3.866939, 0.000187, -0.000359 ,0.000047
3.868073, 0.000187, -0.000358 ,0.000046
3.869211, 0.000187, -0.000357 ,0.000045
3.870354, 0.000186, -0.000356 ,0.000044
3.871500, 0.000186, -0.000356 ,0.000043
3.872650, 0.000186, -0.000355 ,0.000042
3.873803, 0.000185, -0.000354 ,0.000041
3.874960, 0.000185, -0.000353 ,0.000040
3.876121, 0.000185, -0.000352 ,0.000039
3.877284, 0.000184, -0.000352 ,0.000038
3.878451, 0.000184, -0.000351 ,0.000037
3.879620, 0.000184, -0.000350 ,0.000036
3.880793, 0.000183, -0.000349 ,0.000035
3.881968, 0.000183, -0.000348 ,0.000034
3.883145, 0.000183, -0.000348 ,0.000033
3.884326, 0.000182, -0.000347 ,0.000033
3.885508, 0.000182, -0.000346 ,0.000032
3.886692, 0.000182, -0.000345 ,0.000031
3.887879, 0.000181, -0.000344 ,0.000030
3.889068, 0.000181, -0.000344 ,0.000029
3.890258, 0.000180, -0.000343 ,0.000028
3.891451, 0.000180, -0.000342 ,0.000027
3.892645, 0.000180, -0.000341 ,0.000026
3.893840, 0.000179, -0.000340 ,0.000026
3.895037, 0.000179, -0.000339 ,0.000025
3.896235, 0.000178, -0.000339 ,0.000024
3.897435, 0.000178, -0.000338 ,0.000023
3.898636, 0.000178, -0.000337 ,0.000022
3.899837, 0.000177, -0.000336 ,0.000022
3.901040, 0.000177, -0.000335 ,0.000021
3.902243, 0.000176, -0.000334 ,0.000020
3.903447, 0.000176, -0.000334 ,0.000019
3.904651, 0.000176, -0.000333 ,0.000019
3.905856, 0.000175, -0.000332 ,0.000018
3.907062, 0.000175, -0.000331 ,0.000017
3.908267, 0.000174, -0.000330 ,0.000016
3.909472, 0.000174, -0.000329 ,0.000016
3.910678, 0.000173, -0.000328 ,0.000015
3.911884, 0.000173, -0.000328 ,0.000014
3.913090, 0.000173, -0.000327 ,0.000013
3.914295, 0.000172, -0.000326 ,0.000013
3.915500, 0.000172, -0.000325 ,0.000012
3.916705, 0.000171, -0.000324 ,0.000011
3.917909, 0.000171, -0.000323 ,0.000011
3.919112, 0.000170, -0.000323 ,0.000010
3.920315, 0.000170, -0.000322 ,0.000009
3.921516, 0.000170, -0.000321 ,0.000009
3.922718, 0.000169, -0.000320 ,0.000008
3.923918, 0.000169, -0.000319 ,0.000007
3.925117, 0.000168, -0.000318 ,0.000007
3.926315, 0.000168, -0.000317 ,0.000006
3.927511, 0.000167, -0.000317 ,0.000006
3.928707, 0.000167, -0.000316 ,0.000005
3.929901, 0.000167, -0.000315 ,0.000004
3.931093, 0.000166, -0.000314 ,0.000004
3.932284, 0.000166, -0.000313 ,0.000003
3.933473, 0.000165, -0.000312 ,0.000003
3.934660, 0.000165, -0.000311 ,0.000002
3.935846, 0.000164, -0.000311 ,0.000001
3.937030, 0.000164, -0.000310 ,0.000001
3.938211, 0.000163, -0.000309 ,0.000000
3.939391, 0.000163, -0.000308 ,-0.000000
3.940569, 0.000163, -0.000307 ,-0.000001
3.941744, 0.000162, -0.000306 ,-0.000001
3.942917, 0.000162, -0.000305 ,-0.000002
3.944088, 0.000161, -0.000305 ,-0.000002
3.945256, 0.000161, -0.000304 ,-0.000003
3.946421, 0.000160, -0.000303 ,-0.000003
3.947585, 0.000160, -0.000302 ,-0.000004
3.948745, 0.000159, -0.000301 ,-0.000004
3.949903, 0.000159, -0.000300 ,-0.000005
3.951058, 0.000158, -0.000299 ,-0.000005
3.952210, 0.000158, -0.000299 ,-0.000006
3.953359, 0.000158, -0.000298 ,-0.000006
3.954505, 0.000157, -0.000297 ,-0.000007
3.955648, 0.000157, -0.000296 ,-0.000007
3.956788, 0.000156, -0.000295 ,-0.000008
3.957925, 0.000156, -0.000294 ,-0.000008
3.959058, 0.000155, -0.000294 ,-0.000009
3.960188, 0.000155, -0.000293 ,-0.000009
3.961315, 0.000154, -0.000292 ,-0.000010
3.962438, 0.000154, -0.000291 ,-0.000010
3.963557, 0.000154, -0.000290 ,-0.000010
3.964674, 0.000153, -0.000289 ,-0.000011
3.965786, 0.000153, -0.000289 ,-0.000011
3.966895, 0.000152, -0.000288 ,-0.000012
3.967999, 0.000152, -0.000287 ,-0.000012
3.969101, 0.000151, -0.000286 ,-0.000013
3.970198, 0.000151, -0.000285 ,-0.000013
3.971291, 0.000150, -0.000285 ,-0.000013
3.972380, 0.000150, -0.000284 ,-0.000014
3.973466, 0.000150, -0.000283 ,-0.000014
3.974547, 0.000149, -0.000282 ,-0.000014
3.975624, 0.000149, -0.000281 ,-0.000015
3.976696, 0.000148, -0.000280 ,-0.000015
3.977765, 0.000148, -0.000280 ,-0.000016
3.978829, 0.000147, -0.000279 ,-0.000016
3.979888, 0.000147, -0.000278 ,-0.000016
3.980944, 0.000147, -0.000277 ,-0.000017
3.981995, 0.000146, -0.000276 ,-0.000017
3.983041, 0.000146, -0.000276 ,-0.000017
3.984083, 0.000145, -0.000275 ,-0.000018
3.985120, 0.000145, -0.000274 ,-0.000018
3.986152, 0.000144, -0.000273 ,-0.000018
3.987179, 0.000144, -0.000273 ,-0.000019
3.988202, 0.000144, -0.000272 ,-0.000019
3.989221, 0.000143, -0.000271 ,-0.000019
3.990234, 0.000143, -0.000270 ,-0.000020
3.991242, 0.000142, -0.000269 ,-0.000020
3.992245, 0.000142, -0.000269 ,-0.000020
3.993244, 0.000141, -0.000268 ,-0.000020
3.994237, 0.000141, -0.000267 ,-0.000021
3.995225, 0.000141, -0.000266 ,-0.000021
3.996208, 0.000140, -0.000266 ,-0.000021
3.997186, 0.000140, -0.000265 ,-0.000022
3.998159, 0.000139, -0.000264 ,-0.000022
3.999126, 0.000139, -0.000263 ,-0.000022
4.000088, 0.000138, -0.000263 ,-0.000022
4.001045, 0.000138, -0.000262 ,-0.000023
4.001997, 0.000138, -0.000261 ,-0.000023
4.002942, 0.000137, -0.000260 ,-0.000023
4.003882, 0.000137, -0.000260 ,-0.000023
4.004818, 0.000136, -0.000259 ,-0.000024
4.005747, 0.000136, -0.000258 ,-0.000024
4.006671, 0.000136, -0.000257 ,-0.000024
4.007590, 0.000135, -0.000257 ,-0.000024
4.008503, 0.000135, -0.000256 ,-0.000025
4.009410, 0.000134, -0.000255 ,-0.000025
4.010312, 0.000134, -0.000254 ,-0.000025
4.011208, 0.000134, -0.000254 ,-0.000025
4.012097, 0.000133, -0.000253 ,-0.000025
4.012981, 0.000133, -0.000252 ,-0.000026
4.013860, 0.000132, -0.000252 ,-0.000026
4.014732, 0.000132, -0.000251 ,-0.000026
4.015599, 0.000132, -0.000250 ,-0.000026
4.016460, 0.000131, -0.000249 ,-0.000026
4.017315, 0.000131, -0.000249 ,-0.000027
4.018163, 0.000130, -0.000248 ,-0.000027
4.019007, 0.000130, -0.000247 ,-0.000027
4.019844, 0.000130, -0.000247 ,-0.000027
4.020674, 0.000129, -0.000246 ,-0.000027
4.021499, 0.000129, -0.000245 ,-0.000027
4.022317, 0.000129, -0.000244 ,-0.000028
4.023130, 0.000128, -0.000244 ,-0.000028
4.023937, 0.000128, -0.000243 ,-0.000028
4.024736, 0.000127, -0.000242 ,-0.000028
4.025530, 0.000127, -0.000242 ,-0.000028
4.026318, 0.000127, -0.000241 ,-0.000028
4.027100, 0.000126, -0.000240 ,-0.000029
4.027875, 0.000126, -0.000240 ,-0.000029
4.028644, 0.000126, -0.000239 ,-0.000029
4.029406, 0.000125, -0.000238 ,-0.000029
4.030162, 0.000125, -0.000238 ,-0.000029
4.030912, 0.000124, -0.000237 ,-0.000029
4.031656, 0.000124, -0.000236 ,-0.000029
4.032393, 0.000124, -0.000236 ,-0.000030
4.033123, 0.000123, -0.000235 ,-0.000030
4.033848, 0.000123, -0.000234 ,-0.000030
4.034566, 0.000123, -0.000234 ,-0.000030
4.035277, 0.000122, -0.000233 ,-0.000030
4.035982, 0.000122, -0.000233 ,-0.000030
4.036680, 0.000122, -0.000232 ,-0.000030
4.037372, 0.000121, -0.000231 ,-0.000030
4.038057, 0.000121, -0.000231 ,-0.000031
4.038736, 0.000121, -0.000230 ,-0.000031
4.039408, 0.000120, -0.000229 ,-0.000031
4.040074, 0.000120, -0.000229 ,-0.000031
4.040732, 0.000120, -0.000228 ,-0.000031
4.041385, 0.000119, -0.000227 ,-0.000031
4.042030, 0.000119, -0.000227 ,-0.000031
4.042669, 0.000118, -0.000226 ,-0.000031
4.043302, 0.000118, -0.000226 ,-0.000031
4.043928, 0.000118, -0.000225 ,-0.000031
4.044547, 0.000117, -0.000224 ,-0.000031
4.045159, 0.000117, -0.000224 ,-0.000032
4.045764, 0.000117, -0.000223 ,-0.000032
4.046363, 0.000116, -0.000223 ,-0.000032
4.046955, 0.000116, -0.000222 ,-0.000032
4.047541, 0.000116, -0.000221 ,-0.000032
4.048119, 0.000116, -0.000221 ,-0.000032
4.048691, 0.000115, -0.000220 ,-0.000032
4.049256, 0.000115, -0.000220 ,-0.000032
4.049814, 0.000115, -0.000219 ,-0.000032
4.050366, 0.000114, -0.000218 ,-0.000032
4.050910, 0.000114, -0.000218 ,-0.000032
4.051449, 0.000114, -0.000217 ,-0.000032
4.051980, 0.000113, -0.000217 ,-0.000032
4.052504, 0.000113, -0.000216 ,-0.000032
4.053021, 0.000113, -0.000216 ,-0.000032
4.053532, 0.000112, -0.000215 ,-0.000033
4.054035, 0.000112, -0.000214 ,-0.000033
4.054533, 0.000112, -0.000214 ,-0.000033
4.055023, 0.000111, -0.000213 ,-0.000033
4.055506, 0.000111, -0.000213 ,-0.000033
4.055982, 0.000111, -0.000212 ,-0.000033
4.056451, 0.000111, -0.000212 ,-0.000033
4.056914, 0.000110, -0.000211 ,-0.000033
4.057370, 0.000110, -0.000211 ,-0.000033
4.057819, 0.000110, -0.000210 ,-0.000033
4.058261, 0.000109, -0.000209 ,-0.000033
4.058696, 0.000109, -0.000209 ,-0.000033
4.059124, 0.000109, -0.000208 ,-0.000033
4.059546, 0.000108, -0.000208 ,-0.000033
4.059960, 0.000108, -0.000207 ,-0.000033
4.060368, 0.000108, -0.000207 ,-0.000033
4.060769, 0.000108, -0.000206 ,-0.000033
4.061162, 0.000107, -0.000206 ,-0.000033
4.061550, 0.000107, -0.000205 ,-0.000033
4.061929, 0.000107, -0.000205 ,-0.000033
4.062302, 0.000106, -0.000204 ,-0.000033
4.062668, 0.000106, -0.000204 ,-0.000033
4.063028, 0.000106, -0.000203 ,-0.000033
4.063380, 0.000106, -0.000203 ,-0.000033
4.063726, 0.000105, -0.000202 ,-0.000033
4.064065, 0.000105, -0.000202 ,-0.000033
4.064396, 0.000105, -0.000201 ,-0.000033
4.064722, 0.000104, -0.000201 ,-0.000033
4.065039, 0.000104, -0.000200 ,-0.000033
4.065351, 0.000104, -0.000200 ,-0.000033
4.065655, 0.000104, -0.000199 ,-0.000033
4.065953, 0.000103, -0.000199 ,-0.000033
4.066243, 0.000103, -0.000198 ,-0.000033
4.066527, 0.000103, -0.000198 ,-0.000033
4.066803, 0.000103, -0.000197 ,-0.000033
4.067074, 0.000102, -0.000197 ,-0.000033
4.067338, 0.000102, -0.000196 ,-0.000033
4.067594, 0.000102, -0.000196 ,-0.000033
4.067843, 0.000102, -0.000195 ,-0.000033
4.068086, 0.000101, -0.000195 ,-0.000033
4.068322, 0.000101, -0.000194 ,-0.000033
4.068551, 0.000101, -0.000194 ,-0.000033
4.068773, 0.000101, -0.000193 ,-0.000033
4.068988, 0.000100, -0.000193 ,-0.000033
4.069198, 0.000100, -0.000192 ,-0.000033
4.069399, 0.000100, -0.000192 ,-0.000033
4.069594, 0.000100, -0.000191 ,-0.000033
4.069783, 0.000099, -0.000191 ,-0.000033
4.069964, 0.000099, -0.000190 ,-0.000033
4.070139, 0.000099, -0.000190 ,-0.000033
4.070308, 0.000099, -0.000190 ,-0.000032
4.070468, 0.000098, -0.000189 ,-0.000032
4.070624, 0.000098, -0.000189 ,-0.000032
4.070772, 0.000098, -0.000188 ,-0.000032
4.070913, 0.000098, -0.000188 ,-0.000032
4.071047, 0.000097, -0.000187 ,-0.000032
4.071175, 0.000097, -0.000187 ,-0.000032
4.071296, 0.000097, -0.000186 ,-0.000032
4.071411, 0.000097, -0.000186 ,-0.000032
4.071519, 0.000096, -0.000185 ,-0.000032
4.071620, 0.000096, -0.000185 ,-0.000032
4.071714, 0.000096, -0.000185 ,-0.000032
4.071803, 0.000096, -0.000184 ,-0.000032
4.071884, 0.000096, -0.000184 ,-0.000032
4.071959, 0.000095, -0.000183 ,-0.000032
4.072027, 0.000095, -0.000183 ,-0.000032
4.072089, 0.000095, -0.000182 ,-0.000032
4.072144, 0.000095, -0.000182 ,-0.000032
4.072192, 0.000094, -0.000182 ,-0.000032
4.072234, 0.000094, -0.000181 ,-0.000031
4.072270, 0.000094, -0.000181 ,-0.000031
4.072299, 0.000094, -0.000180 ,-0.000031
4.072321, 0.000094, -0.000180 ,-0.000031
4.072338, 0.000093, -0.000179 ,-0.000031
4.072347, 0.000093, -0.000179 ,-0.000031
4.072350, 0.000093, -0.000179 ,-0.000031
4.072347, 0.000093, -0.000178 ,-0.000031
4.072337, 0.000092, -0.000178 ,-0.000031
4.072321, 0.000092, -0.000177 ,-0.000031
4.072299, 0.000092, -0.000177 ,-0.000031
4.072270, 0.000092, -0.000177 ,-0.000031
4.072234, 0.000092, -0.000176 ,-0.000031
4.072193, 0.000091, -0.000176 ,-0.000031
4.072145, 0.000091, -0.000175 ,-0.000030
4.072091, 0.000091, -0.000175 ,-0.000030
4.072031, 0.000091, -0.000175 ,-0.000030
4.071964, 0.000091, -0.000174 ,-0.000030
4.071891, 0.000090, -0.000174 ,-0.000030
4.071811, 0.000090, -0.000173 ,-0.000030
4.071726, 0.000090, -0.000173 ,-0.000030
4.071634, 0.000090, -0.000173 ,-0.000030
4.071537, 0.000090, -0.000172 ,-0.000030
4.071433, 0.000089, -0.000172 ,-0.000030
4.071322, 0.000089, -0.000171 ,-0.000030
4.071206, 0.000089, -0.000171 ,-0.000030
4.071084, 0.000089, -0.000171 ,-0.000029
4.070955, 0.000089, -0.000170 ,-0.000029
4.070820, 0.000088, -0.000170 ,-0.000029
4.070680, 0.000088, -0.000170 ,-0.000029
4.070533, 0.000088, -0.000169 ,-0.000029
4.070381, 0.000088, -0.000169 ,-0.000029
4.070222, 0.000088, -0.000168 ,-0.000029
4.070057, 0.000087, -0.000168 ,-0.000029
4.069886, 0.000087, -0.000168 ,-0.000029
4.069710, 0.000087, -0.000167 ,-0.000029
4.069528, 0.000087, -0.000167 ,-0.000028
4.069339, 0.000087, -0.000167 ,-0.000028
4.069145, 0.000087, -0.000166 ,-0.000028
4.068944, 0.000086, -0.000166 ,-0.000028
4.068739, 0.000086, -0.000165 ,-0.000028
4.068527, 0.000086, -0.000165 ,-0.000028
4.068310, 0.000086, -0.000165 ,-0.000028
4.068086, 0.000086, -0.000164 ,-0.000028
4.067857, 0.000085, -0.000164 ,-0.000028
4.067622, 0.000085, -0.000164 ,-0.000027
4.067382, 0.000085, -0.000163 ,-0.000027
4.067135, 0.000085, -0.000163 ,-0.000027
4.066884, 0.000085, -0.000163 ,-0.000027
4.066626, 0.000085, -0.000162 ,-0.000027
4.066363, 0.000084, -0.000162 ,-0.000027
4.066094, 0.000084, -0.000162 ,-0.000027
4.065820, 0.000084, -0.000161 ,-0.000027
4.065540, 0.000084, -0.000161 ,-0.000027
4.065255, 0.000084, -0.000160 ,-0.000026
4.064964, 0.000083, -0.000160 ,-0.000026
4.064667, 0.000083, -0.000160 ,-0.000026
4.064365, 0.000083, -0.000159 ,-0.000026
4.064058, 0.000083, -0.000159 ,-0.000026
4.063745, 0.000083, -0.000159 ,-0.000026
4.063427, 0.000083, -0.000158 ,-0.000026
4.063104, 0.000082, -0.000158 ,-0.000026
4.062775, 0.000082, -0.000158 ,-0.000025
4.062441, 0.000082, -0.000157 ,-0.000025
4.062101, 0.000082, -0.000157 ,-0.000025
4.061757, 0.000082, -0.000157 ,-0.000025
4.061407, 0.000082, -0.000156 ,-0.000025
4.061051, 0.000081, -0.000156 ,-0.000025
4.060691, 0.000081, -0.000156 ,-0.000025
4.060326, 0.000081, -0.000155 ,-0.000025
4.059955, 0.000081, -0.000155 ,-0.000024
4.059579, 0.000081, -0.000155 ,-0.000024
4.059198, 0.000081, -0.000154 ,-0.000024
4.058813, 0.000080, -0.000154 ,-0.000024
4.058422, 0.000080, -0.000154 ,-0.000024
4.058026, 0.000080, -0.000153 ,-0.000024
4.057624, 0.000080, -0.000153 ,-0.000024
4.057219, 0.000080, -0.000153 ,-0.000024
4.056808, 0.000080, -0.000152 ,-0.000023
4.056392, 0.000079, -0.000152 ,-0.000023
4.055971, 0.000079, -0.000152 ,-0.000023
4.055545, 0.000079, -0.000151 ,-0.000023
4.055115, 0.000079, -0.000151 ,-0.000023
4.054679, 0.000079, -0.000151 ,-0.000023
4.054239, 0.000079, -0.000150 ,-0.000023
4.053795, 0.000078, -0.000150 ,-0.000022
4.053345, 0.000078, -0.000150 ,-0.000022
4.052891, 0.000078, -0.000149 ,-0.000022
4.052432, 0.000078, -0.000149 ,-0.000022
4.051969, 0.000078, -0.000149 ,-0.000022
4.051500, 0.000078, -0.000148 ,-0.000022
4.051027, 0.000078, -0.000148 ,-0.000022
4.050550, 0.000077, -0.000148 ,-0.000021
4.050068, 0.000077, -0.000148 ,-0.000021
4.049582, 0.000077, -0.000147 ,-0.000021
4.049091, 0.000077, -0.000147 ,-0.000021
4.048596, 0.000077, -0.000147 ,-0.000021
4.048096, 0.000077, -0.000146 ,-0.000021
4.047592, 0.000076, -0.000146 ,-0.000021
4.047083, 0.000076, -0.000146 ,-0.000020
4.046570, 0.000076, -0.000145 ,-0.000020
4.046053, 0.000076, -0.000145 ,-0.000020
4.045531, 0.000076, -0.000145 ,-0.000020
4.045006, 0.000076, -0.000144 ,-0.000020
4.044476, 0.000076, -0.000144 ,-0.000020
4.043941, 0.000075, -0.000144 ,-0.000020
4.043403, 0.000075, -0.000143 ,-0.000019
4.042861, 0.000075, -0.000143 ,-0.000019
4.042314, 0.000075, -0.000143 ,-0.000019
4.041763, 0.000075, -0.000142 ,-0.000019
4.041208, 0.000075, -0.000142 ,-0.000019
4.040649, 0.000074, -0.000142 ,-0.000019
4.040086, 0.000074, -0.000142 ,-0.000018
4.039520, 0.000074, -0.000141 ,-0.000018
4.038949, 0.000074, -0.000141 ,-0.000018
4.038374, 0.000074, -0.000141 ,-0.000018
4.037796, 0.000074, -0.000140 ,-0.000018
4.037213, 0.000074, -0.000140 ,-0.000018
4.036627, 0.000073, -0.000140 ,-0.000018
4.036037, 0.000073, -0.000139 ,-0.000017
4.035443, 0.000073, -0.000139 ,-0.000017
4.034845, 0.000073, -0.000139 ,-0.000017
4.034244, 0.000073, -0.000138 ,-0.000017
4.033639, 0.000073, -0.000138 ,-0.000017
4.033031, 0.000073, -0.000138 ,-0.000017
4.032418, 0.000072, -0.000137 ,-0.000016
4.031802, 0.000072, -0.000137 ,-0.000016
4.031183, 0.000072, -0.000137 ,-0.000016
4.030560, 0.000072, -0.000137 ,-0.000016
4.029933, 0.000072, -0.000136 ,-0.000016
4.029304, 0.000072, -0.000136 ,-0.000016
4.028670, 0.000071, -0.000136 ,-0.000015
4.028033, 0.000071, -0.000135 ,-0.000015
4.027393, 0.000071, -0.000135 ,-0.000015
4.026750, 0.000071, -0.000135 ,-0.000015
4.026103, 0.000071, -0.000134 ,-0.000015
4.025453, 0.000071, -0.000134 ,-0.000015
4.024800, 0.000071, -0.000134 ,-0.000014
4.024143, 0.000070, -0.000133 ,-0.000014
4.023483, 0.000070, -0.000133 ,-0.000014
4.022820, 0.000070, -0.000133 ,-0.000014
4.022154, 0.000070, -0.000133 ,-0.000014
4.021485, 0.000070, -0.000132 ,-0.000014
4.020813, 0.000070, -0.000132 ,-0.000013
4.020137, 0.000070, -0.000132 ,-0.000013
4.019459, 0.000069, -0.000131 ,-0.000013
4.018778, 0.000069, -0.000131 ,-0.000013
4.018094, 0.000069, -0.000131 ,-0.000013
4.017406, 0.000069, -0.000130 ,-0.000013
4.016716, 0.000069, -0.000130 ,-0.000012
4.016024, 0.000069, -0.000130 ,-0.000012
4.015327, 0.000069, -0.000129 ,-0.000012
4.014629, 0.000068, -0.000129 ,-0.000012
4.013928, 0.000068, -0.000129 ,-0.000012
4.013224, 0.000068, -0.000129 ,-0.000012
4.012517, 0.000068, -0.000128 ,-0.000011
4.011808, 0.000068, -0.000128 ,-0.000011
4.011096, 0.000068, -0.000128 ,-0.000011
4.010381, 0.000067, -0.000127 ,-0.000011
4.009664, 0.000067, -0.000127 ,-0.000011
4.008944, 0.000067, -0.000127 ,-0.000010
4.008222, 0.000067, -0.000126 ,-0.000010
4.007497, 0.000067, -0.000126 ,-0.000010
4.006770, 0.000067, -0.000126 ,-0.000010
4.006040, 0.000067, -0.000125 ,-0.000010
4.005309, 0.000066, -0.000125 ,-0.000010
4.004574, 0.000066, -0.000125 ,-0.000009
4.003837, 0.000066, -0.000124 ,-0.000009
4.003098, 0.000066, -0.000124 ,-0.000009
4.002357, 0.000066, -0.000124 ,-0.000009
4.001614, 0.000066, -0.000124 ,-0.000009
4.000868, 0.000066, -0.000123 ,-0.000009
4.000120, 0.000065, -0.000123 ,-0.000008
3.999370, 0.000065, -0.000123 ,-0.000008
3.998618, 0.000065, -0.000122 ,-0.000008
3.997863, 0.000065, -0.000122 ,-0.000008
3.997107, 0.000065, -0.000122 ,-0.000008
3.996349, 0.000065, -0.000121 ,-0.000007
3.995589, 0.000064, -0.000121 ,-0.000007
3.994827, 0.000064, -0.000121 ,-0.000007
3.994063, 0.000064, -0.000120 ,-0.000007
3.993297, 0.000064, -0.000120 ,-0.000007
3.992529, 0.000064, -0.000120 ,-0.000007
3.991760, 0.000064, -0.000119 ,-0.000006
3.990989, 0.000064, -0.000119 ,-0.000006
3.990216, 0.000063, -0.000119 ,-0.000006
3.989441, 0.000063, -0.000118 ,-0.000006
3.988664, 0.000063, -0.000118 ,-0.000006
3.987886, 0.000063, -0.000118 ,-0.000005
3.987106, 0.000063, -0.000117 ,-0.000005
3.986325, 0.000063, -0.000117 ,-0.000005
3.985542, 0.000062, -0.000117 ,-0.000005
3.984757, 0.000062, -0.000117 ,-0.000005
3.983971, 0.000062, -0.000116 ,-0.000005
3.983184, 0.000062, -0.000116 ,-0.000004
3.982395, 0.000062, -0.000116 ,-0.000004
3.981605, 0.000062, -0.000115 ,-0.000004
3.980813, 0.000061, -0.000115 ,-0.000004
3.980020, 0.000061, -0.000115 ,-0.000004
3.979225, 0.000061, -0.000114 ,-0.000003
3.978430, 0.000061, -0.000114 ,-0.000003
3.977633, 0.000061, -0.000114 ,-0.000003
3.976835, 0.000061, -0.000113 ,-0.000003
3.976036, 0.000060, -0.000113 ,-0.000003
3.975235, 0.000060, -0.000113 ,-0.000002
3.974433, 0.000060, -0.000112 ,-0.000002
3.973631, 0.000060, -0.000112 ,-0.000002
3.972827, 0.000060, -0.000112 ,-0.000002
3.972023, 0.000060, -0.000111 ,-0.000002
3.971217, 0.000059, -0.000111 ,-0.000002
3.970410, 0.000059, -0.000111 ,-0.000001
3.969603, 0.000059, -0.000110 ,-0.000001
3.968794, 0.000059, -0.000110 ,-0.000001
3.967985, 0.000059, -0.000110 ,-0.000001
3.967174, 0.000059, -0.000109 ,-0.000001
3.966364, 0.000058, -0.000109 ,-0.000000
3.965552, 0.000058, -0.000109 ,-0.000000
3.964739, 0.000058, -0.000108 ,-0.000000
3.963926, 0.000058, -0.000108 ,0.000000
3.963112, 0.000058, -0.000108 ,0.000000
3.962297, 0.000058, -0.000107 ,0.000000
3.961482, 0.000057, -0.000107 ,0.000001
3.960666, 0.000057, -0.000107 ,0.000001
3.959850, 0.000057, -0.000106 ,0.000001
3.959033, 0.000057, -0.000106 ,0.000001
3.958216, 0.000057, -0.000105 ,0.000001
3.957398, 0.000057, -0.000105 ,0.000002
3.956580, 0.000056, -0.000105 ,0.000002
3.955761, 0.000056, -0.000104 ,0.000002
3.954942, 0.000056, -0.000104 ,0.000002
3.954123, 0.000056, -0.000104 ,0.000002
3.953303, 0.000056, -0.000103 ,0.000003
3.952483, 0.000056, -0.000103 ,0.000003
3.951663, 0.000055, -0.000103 ,0.000003
3.950842, 0.000055, -0.000102 ,0.000003
3.950022, 0.000055, -0.000102 ,0.000003
3.949201, 0.000055, -0.000102 ,0.000003
3.948380, 0.000055, -0.000101 ,0.000004
3.947559, 0.000054, -0.000101 ,0.000004
3.946738, 0.000054, -0.000101 ,0.000004
3.945917, 0.000054, -0.000100 ,0.000004
3.945096, 0.000054, -0.000100 ,0.000004
3.944275, 0.000054, -0.000099 ,0.000005
3.943454, 0.000054, -0.000099 ,0.000005
3.942633, 0.000053, -0.000099 ,0.000005
3.941812, 0.000053, -0.000098 ,0.000005
3.940991, 0.000053, -0.000098 ,0.000005
3.940171, 0.000053, -0.000098 ,0.000005
3.939351, 0.000053, -0.000097 ,0.000006
3.938531, 0.000052, -0.000097 ,0.000006
3.937711, 0.000052, -0.000097 ,0.000006
3.936891, 0.000052, -0.000096 ,0.000006
3.936072, 0.000052, -0.000096 ,0.000006
3.935253, 0.000052, -0.000095 ,0.000007
3.934435, 0.000051, -0.000095 ,0.000007
3.933617, 0.000051, -0.000095 ,0.000007
3.932799, 0.000051, -0.000094 ,0.000007
3.931982, 0.000051, -0.000094 ,0.000007
3.931166, 0.000051, -0.000094 ,0.000007
3.930350, 0.000050, -0.000093 ,0.000008
3.929534, 0.000050, -0.000093 ,0.000008
3.928719, 0.000050, -0.000092 ,0.000008
3.927905, 0.000050, -0.000092 ,0.000008
3.927091, 0.000050, -0.000092 ,0.000008
3.926278, 0.000049, -0.000091 ,0.000009
3.925466, 0.000049, -0.000091 ,0.000009
3.924654, 0.000049, -0.000091 ,0.000009
3.923844, 0.000049, -0.000090 ,0.000009
3.923034, 0.000049, -0.000090 ,0.000009
3.922225, 0.000048, -0.000089 ,0.000009
3.921416, 0.000048, -0.000089 ,0.000010
3.920609, 0.000048, -0.000089 ,0.000010
3.919803, 0.000048, -0.000088 ,0.000010
3.918997, 0.000048, -0.000088 ,0.000010
3.918192, 0.000047, -0.000087 ,0.000010
3.917389, 0.000047, -0.000087 ,0.000010
3.916586, 0.000047, -0.000087 ,0.000011
3.915784, 0.000047, -0.000086 ,0.000011
3.914984, 0.000047, -0.000086 ,0.000011
3.914185, 0.000046, -0.000085 ,0.000011
3.913387, 0.000046, -0.000085 ,0.000011
3.912590, 0.000046, -0.000085 ,0.000011
3.911793, 0.000046, -0.000084 ,0.000012
3.910999, 0.000046, -0.000084 ,0.000012
3.910205, 0.000045, -0.000083 ,0.000012
3.909413, 0.000045, -0.000083 ,0.000012
3.908622, 0.000045, -0.000083 ,0.000012
3.907833, 0.000045, -0.000082 ,0.000013
3.907044, 0.000045, -0.000082 ,0.000013
3.906257, 0.000044, -0.000081 ,0.000013
3.905472, 0.000044, -0.000081 ,0.000013
3.904688, 0.000044, -0.000081 ,0.000013
3.903905, 0.000044, -0.000080 ,0.000013
3.903124, 0.000043, -0.000080 ,0.000014
3.902345, 0.000043, -0.000079 ,0.000014
3.901566, 0.000043, -0.000079 ,0.000014
3.900790, 0.000043, -0.000078 ,0.000014
3.900015, 0.000043, -0.000078 ,0.000014
3.899242, 0.000042, -0.000078 ,0.000014
3.898470, 0.000042, -0.000077 ,0.000014
3.897700, 0.000042, -0.000077 ,0.000015
3.896931, 0.000042, -0.000076 ,0.000015
3.896165, 0.000041, -0.000076 ,0.000015
3.895400, 0.000041, -0.000076 ,0.000015
3.894637, 0.000041, -0.000075 ,0.000015
3.893875, 0.000041, -0.000075 ,0.000015
3.893116, 0.000040, -0.000074 ,0.000016
3.892358, 0.000040, -0.000074 ,0.000016
3.891603, 0.000040, -0.000073 ,0.000016
3.890848, 0.000040, -0.000073 ,0.000016
3.890097, 0.000040, -0.000073 ,0.000016
3.889347, 0.000039, -0.000072 ,0.000016
3.888598, 0.000039, -0.000072 ,0.000017
3.887852, 0.000039, -0.000071 ,0.000017
3.887108, 0.000039, -0.000071 ,0.000017
3.886366, 0.000038, -0.000070 ,0.000017
3.885626, 0.000038, -0.000070 ,0.000017
3.884888, 0.000038, -0.000069 ,0.000017
3.884152, 0.000038, -0.000069 ,0.000017
3.883419, 0.000037, -0.000069 ,0.000018
3.882687, 0.000037, -0.000068 ,0.000018
3.881958, 0.000037, -0.000068 ,0.000018
3.881230, 0.000037, -0.000067 ,0.000018
3.880505, 0.000036, -0.000067 ,0.000018
3.879783, 0.000036, -0.000066 ,0.000018
3.879062, 0.000036, -0.000066 ,0.000019
3.878344, 0.000036, -0.000065 ,0.000019
3.877628, 0.000036, -0.000065 ,0.000019
3.876915, 0.000035, -0.000065 ,0.000019
3.876203, 0.000035, -0.000064 ,0.000019
3.875495, 0.000035, -0.000064 ,0.000019
3.874788, 0.000035, -0.000063 ,0.000019
3.874085, 0.000034, -0.000063 ,0.000019
3.873383, 0.000034, -0.000062 ,0.000020
3.872684, 0.000034, -0.000062 ,0.000020
3.871987, 0.000034, -0.000061 ,0.000020
3.871294, 0.000033, -0.000061 ,0.000020
3.870602, 0.000033, -0.000060 ,0.000020
3.869913, 0.000033, -0.000060 ,0.000020
3.869227, 0.000033, -0.000059 ,0.000020
3.868543, 0.000032, -0.000059 ,0.000021
3.867862, 0.000032, -0.000059 ,0.000021
3.867183, 0.000032, -0.000058 ,0.000021
3.866508, 0.000031, -0.000058 ,0.000021
3.865834, 0.000031, -0.000057 ,0.000021
3.865164, 0.000031, -0.000057 ,0.000021
3.864496, 0.000031, -0.000056 ,0.000021
3.863831, 0.000030, -0.000056 ,0.000021
3.863169, 0.000030, -0.000055 ,0.000022
3.862509, 0.000030, -0.000055 ,0.000022
3.861853, 0.000030, -0.000054 ,0.000022
3.861199, 0.000029, -0.000054 ,0.000022
3.860548, 0.000029, -0.000053 ,0.000022
3.859900, 0.000029, -0.000053 ,0.000022
3.859255, 0.000029, -0.000052 ,0.000022
3.858612, 0.000028, -0.000052 ,0.000022
3.857973, 0.000028, -0.000051 ,0.000023
3.857337, 0.000028, -0.000051 ,0.000023
3.856703, 0.000028, -0.000050 ,0.000023
3.856072, 0.000027, -0.000050 ,0.000023
3.855445, 0.000027, -0.000049 ,0.000023
3.854820, 0.000027, -0.000049 ,0.000023
3.854198, 0.000026, -0.000048 ,0.000023
3.853580, 0.000026, -0.000048 ,0.000023
3.852964, 0.000026, -0.000047 ,0.000023
3.852352, 0.000026, -0.000047 ,0.000024
3.851743, 0.000025, -0.000046 ,0.000024
3.851136, 0.000025, -0.000046 ,0.000024
3.850533, 0.000025, -0.000045 ,0.000024
3.849933, 0.000025, -0.000045 ,0.000024
3.849336, 0.000024, -0.000044 ,0.000024
3.848743, 0.000024, -0.000044 ,0.000024
3.848153, 0.000024, -0.000043 ,0.000024
3.847566, 0.000023, -0.000043 ,0.000024
3.846982, 0.000023, -0.000042 ,0.000025
3.846400, 0.000023, -0.000042 ,0.000025
3.845823, 0.000023, -0.000041 ,0.000025
3.845249, 0.000022, -0.000041 ,0.000025
3.844678, 0.000022, -0.000040 ,0.000025
3.844110, 0.000022, -0.000040 ,0.000025
3.843546, 0.000021, -0.000039 ,0.000025
3.842985, 0.000021, -0.000039 ,0.000025
3.842427, 0.000021, -0.000038 ,0.000025
3.841874, 0.000021, -0.000038 ,0.000025
3.841322, 0.000020, -0.000037 ,0.000025
3.840775, 0.000020, -0.000037 ,0.000026
3.840231, 0.000020, -0.000036 ,0.000026
3.839690, 0.000020, -0.000036 ,0.000026
3.839153, 0.000019, -0.000035 ,0.000026
3.838619, 0.000019, -0.000035 ,0.000026
3.838089, 0.000019, -0.000034 ,0.000026
3.837562, 0.000018, -0.000034 ,0.000026
3.837039, 0.000018, -0.000033 ,0.000026
3.836519, 0.000018, -0.000033 ,0.000026
3.836003, 0.000017, -0.000032 ,0.000026
3.835490, 0.000017, -0.000032 ,0.000026
3.834981, 0.000017, -0.000031 ,0.000026
3.834475, 0.000017, -0.000031 ,0.000026
3.833973, 0.000016, -0.000030 ,0.000027
3.833474, 0.000016, -0.000030 ,0.000027
3.832979, 0.000016, -0.000029 ,0.000027
3.832487, 0.000015, -0.000029 ,0.000027
3.832000, 0.000015, -0.000028 ,0.000027
3.831516, 0.000015, -0.000027 ,0.000027
3.831035, 0.000015, -0.000027 ,0.000027
3.830559, 0.000014, -0.000026 ,0.000027
3.830085, 0.000014, -0.000026 ,0.000027
3.829615, 0.000014, -0.000025 ,0.000027
3.829150, 0.000013, -0.000025 ,0.000027
3.828687, 0.000013, -0.000024 ,0.000027
3.828229, 0.000013, -0.000024 ,0.000027
3.827774, 0.000012, -0.000023 ,0.000027
3.827323, 0.000012, -0.000023 ,0.000027
3.826876, 0.000012, -0.000022 ,0.000027
3.826432, 0.000012, -0.000022 ,0.000028
3.825992, 0.000011, -0.000021 ,0.000028
3.825556, 0.000011, -0.000021 ,0.000028
3.825124, 0.000011, -0.000020 ,0.000028
3.824695, 0.000010, -0.000019 ,0.000028
3.824270, 0.000010, -0.000019 ,0.000028
3.823849, 0.000010, -0.000018 ,0.000028
3.823432, 0.000010, -0.000018 ,0.000028
3.823018, 0.000009, -0.000017 ,0.000028
3.822609, 0.000009, -0.000017 ,0.000028
3.822203, 0.000009, -0.000016 ,0.000028
3.821801, 0.000008, -0.000016 ,0.000028
3.821403, 0.000008, -0.000015 ,0.000028
3.821008, 0.000008, -0.000015 ,0.000028
3.820618, 0.000007, -0.000014 ,0.000028
3.820231, 0.000007, -0.000014 ,0.000028
3.819848, 0.000007, -0.000013 ,0.000028
3.819469, 0.000006, -0.000012 ,0.000028
3.819094, 0.000006, -0.000012 ,0.000028
3.818723, 0.000006, -0.000011 ,0.000028
3.818356, 0.000006, -0.000011 ,0.000028
3.817992, 0.000005, -0.000010 ,0.000028
3.817633, 0.000005, -0.000010 ,0.000028
3.817277, 0.000005, -0.000009 ,0.000028
3.816926, 0.000004, -0.000009 ,0.000028
3.816578, 0.000004, -0.000008 ,0.000028
3.816235, 0.000004, -0.000007 ,0.000028
3.815894, 0.000003, -0.000007 ,0.000028
3.815558, 0.000003, -0.000006 ,0.000028
3.815227, 0.000003, -0.000006 ,0.000028
3.814898, 0.000002, -0.000005 ,0.000028
3.814574, 0.000002, -0.000005 ,0.000028
3.814254, 0.000002, -0.000004 ,0.000028
3.813937, 0.000002, -0.000004 ,0.000028
3.813625, 0.000001, -0.000003 ,0.000028
3.813317, 0.000001, -0.000003 ,0.000028
3.813012, 0.000001, -0.000002 ,0.000028
3.812712, 0.000000, -0.000001 ,0.000028
3.812415, 0.000000, -0.000001 ,0.000028
3.812123, -0.000000, -0.000000 ,0.000028
3.811834, -0.000001, 0.000000 ,0.000028
3.811549, -0.000001, 0.000001 ,0.000028
3.811269, -0.000001, 0.000001 ,0.000028
3.810992, -0.000002, 0.000002 ,0.000028
3.810719, -0.000002, 0.000002 ,0.000028
3.810451, -0.000002, 0.000003 ,0.000028
3.810186, -0.000002, 0.000004 ,0.000028
3.809925, -0.000003, 0.000004 ,0.000028
3.809668, -0.000003, 0.000005 ,0.000028
3.809415, -0.000003, 0.000005 ,0.000028
3.809167, -0.000004, 0.000006 ,0.000028
3.808922, -0.000004, 0.000006 ,0.000028
3.808681, -0.000004, 0.000007 ,0.000028
3.808444, -0.000005, 0.000007 ,0.000028
3.808211, -0.000005, 0.000008 ,0.000028
3.807982, -0.000005, 0.000009 ,0.000028
3.807757, -0.000006, 0.000009 ,0.000028
3.807536, -0.000006, 0.000010 ,0.000028
3.807319, -0.000006, 0.000010 ,0.000028
3.807106, -0.000007, 0.000011 ,0.000028
3.806897, -0.000007, 0.000011 ,0.000028
3.806692, -0.000007, 0.000012 ,0.000028
3.806491, -0.000007, 0.000013 ,0.000028
3.806294, -0.000008, 0.000013 ,0.000028
3.806101, -0.000008, 0.000014 ,0.000028
3.805911, -0.000008, 0.000014 ,0.000028
3.805726, -0.000009, 0.000015 ,0.000028
3.805545, -0.000009, 0.000015 ,0.000028
3.805367, -0.000009, 0.000016 ,0.000028
3.805194, -0.000010, 0.000016 ,0.000028
3.805025, -0.000010, 0.000017 ,0.000028
3.804859, -0.000010, 0.000018 ,0.000028
3.804698, -0.000011, 0.000018 ,0.000027
3.804540, -0.000011, 0.000019 ,0.000027
3.804387, -0.000011, 0.000019 ,0.000027
3.804237, -0.000011, 0.000020 ,0.000027
3.804091, -0.000012, 0.000020 ,0.000027
3.803949, -0.000012, 0.000021 ,0.000027
3.803811, -0.000012, 0.000021 ,0.000027
3.803677, -0.000013, 0.000022 ,0.000027
3.803547, -0.000013, 0.000023 ,0.000027
3.803421, -0.000013, 0.000023 ,0.000027
3.803299, -0.000014, 0.000024 ,0.000027
3.803180, -0.000014, 0.000024 ,0.000027
3.803066, -0.000014, 0.000025 ,0.000027
3.802955, -0.000015, 0.000025 ,0.000027
3.802848, -0.000015, 0.000026 ,0.000027
3.802745, -0.000015, 0.000026 ,0.000027
3.802646, -0.000016, 0.000027 ,0.000027
3.802552, -0.000016, 0.000028 ,0.000026
3.802460, -0.000016, 0.000028 ,0.000026
3.802373, -0.000016, 0.000029 ,0.000026
3.802289, -0.000017, 0.000029 ,0.000026
3.802209, -0.000017, 0.000030 ,0.000026
3.802133, -0.000017, 0.000030 ,0.000026
3.802061, -0.000018, 0.000031 ,0.000026
3.801993, -0.000018, 0.000031 ,0.000026
3.801928, -0.000018, 0.000032 ,0.000026
3.801868, -0.000019, 0.000033 ,0.000026
3.801811, -0.000019, 0.000033 ,0.000026
3.801758, -0.000019, 0.000034 ,0.000026
3.801708, -0.000019, 0.000034 ,0.000025
3.801663, -0.000020, 0.000035 ,0.000025
3.801621, -0.000020, 0.000035 ,0.000025
3.801583, -0.000020, 0.000036 ,0.000025
3.801548, -0.000021, 0.000036 ,0.000025
3.801518, -0.000021, 0.000037 ,0.000025
3.801491, -0.000021, 0.000038 ,0.000025
3.801467, -0.000022, 0.000038 ,0.000025
3.801448, -0.000022, 0.000039 ,0.000025
3.801432, -0.000022, 0.000039 ,0.000025
3.801420, -0.000023, 0.000040 ,0.000024
3.801412, -0.000023, 0.000040 ,0.000024
3.801407, -0.000023, 0.000041 ,0.000024
3.801405, -0.000023, 0.000041 ,0.000024
3.801408, -0.000024, 0.000042 ,0.000024
3.801414, -0.000024, 0.000043 ,0.000024
3.801424, -0.000024, 0.000043 ,0.000024
3.801437, -0.000025, 0.000044 ,0.000024
3.801454, -0.000025, 0.000044 ,0.000024
3.801474, -0.000025, 0.000045 ,0.000023
3.801498, -0.000026, 0.000045 ,0.000023
3.801526, -0.000026, 0.000046 ,0.000023
3.801557, -0.000026, 0.000046 ,0.000023
3.801592, -0.000026, 0.000047 ,0.000023
3.801630, -0.000027, 0.000047 ,0.000023
3.801672, -0.000027, 0.000048 ,0.000023
3.801717, -0.000027, 0.000049 ,0.000023
3.801766, -0.000028, 0.000049 ,0.000023
3.801818, -0.000028, 0.000050 ,0.000022
3.801873, -0.000028, 0.000050 ,0.000022
3.801932, -0.000028, 0.000051 ,0.000022
3.801995, -0.000029, 0.000051 ,0.000022
3.802061, -0.000029, 0.000052 ,0.000022
3.802130, -0.000029, 0.000052 ,0.000022
3.802202, -0.000030, 0.000053 ,0.000022
3.802278, -0.000030, 0.000053 ,0.000022
3.802358, -0.000030, 0.000054 ,0.000021
3.802440, -0.000031, 0.000054 ,0.000021
3.802527, -0.000031, 0.000055 ,0.000021
3.802616, -0.000031, 0.000056 ,0.000021
3.802709, -0.000031, 0.000056 ,0.000021
3.802804, -0.000032, 0.000057 ,0.000021
3.802904, -0.000032, 0.000057 ,0.000021
3.803006, -0.000032, 0.000058 ,0.000020
3.803112, -0.000033, 0.000058 ,0.000020
3.803221, -0.000033, 0.000059 ,0.000020
3.803334, -0.000033, 0.000059 ,0.000020
3.803449, -0.000033, 0.000060 ,0.000020
3.803567, -0.000034, 0.000060 ,0.000020
3.803689, -0.000034, 0.000061 ,0.000020
3.803814, -0.000034, 0.000061 ,0.000019
3.803942, -0.000035, 0.000062 ,0.000019
3.804073, -0.000035, 0.000062 ,0.000019
3.804207, -0.000035, 0.000063 ,0.000019
3.804345, -0.000035, 0.000063 ,0.000019
3.804485, -0.000036, 0.000064 ,0.000019
3.804628, -0.000036, 0.000065 ,0.000018
3.804774, -0.000036, 0.000065 ,0.000018
3.804924, -0.000037, 0.000066 ,0.000018
3.805076, -0.000037, 0.000066 ,0.000018
3.805232, -0.000037, 0.000067 ,0.000018
3.805390, -0.000037, 0.000067 ,0.000018
3.805551, -0.000038, 0.000068 ,0.000018
3.805716, -0.000038, 0.000068 ,0.000017
3.805882, -0.000038, 0.000069 ,0.000017
3.806052, -0.000038, 0.000069 ,0.000017
3.806226, -0.000039, 0.000070 ,0.000017
3.806401, -0.000039, 0.000070 ,0.000017
3.806580, -0.000039, 0.000071 ,0.000017
3.806761, -0.000040, 0.000071 ,0.000016
3.806945, -0.000040, 0.000072 ,0.000016
3.807132, -0.000040, 0.000072 ,0.000016
3.807322, -0.000040, 0.000073 ,0.000016
3.807514, -0.000041, 0.000073 ,0.000016
3.807709, -0.000041, 0.000074 ,0.000016
3.807907, -0.000041, 0.000074 ,0.000015
3.808108, -0.000041, 0.000075 ,0.000015
3.808311, -0.000042, 0.000075 ,0.000015
3.808517, -0.000042, 0.000076 ,0.000015
3.808725, -0.000042, 0.000076 ,0.000015
3.808936, -0.000043, 0.000077 ,0.000014
3.809150, -0.000043, 0.000077 ,0.000014
3.809366, -0.000043, 0.000078 ,0.000014
3.809585, -0.000043, 0.000078 ,0.000014
3.809806, -0.000044, 0.000079 ,0.000014
3.810030, -0.000044, 0.000079 ,0.000014
3.810256, -0.000044, 0.000080 ,0.000013
3.810484, -0.000044, 0.000080 ,0.000013
3.810715, -0.000045, 0.000081 ,0.000013
3.810949, -0.000045, 0.000081 ,0.000013
3.811185, -0.000045, 0.000082 ,0.000013
3.811423, -0.000045, 0.000082 ,0.000012
3.811664, -0.000046, 0.000083 ,0.000012
3.811907, -0.000046, 0.000083 ,0.000012
3.812152, -0.000046, 0.000084 ,0.000012
3.812399, -0.000046, 0.000084 ,0.000012
3.812649, -0.000047, 0.000085 ,0.000012
3.812901, -0.000047, 0.000085 ,0.000011
3.813155, -0.000047, 0.000086 ,0.000011
3.813412, -0.000048, 0.000086 ,0.000011
3.813670, -0.000048, 0.000087 ,0.000011
3.813931, -0.000048, 0.000087 ,0.000011
3.814194, -0.000048, 0.000088 ,0.000010
3.814459, -0.000049, 0.000088 ,0.000010
3.814726, -0.000049, 0.000089 ,0.000010
3.814995, -0.000049, 0.000089 ,0.000010
3.815266, -0.000049, 0.000090 ,0.000010
3.815540, -0.000050, 0.000090 ,0.000009
3.815815, -0.000050, 0.000091 ,0.000009
3.816092, -0.000050, 0.000091 ,0.000009
3.816371, -0.000050, 0.000092 ,0.000009
3.816652, -0.000051, 0.000092 ,0.000009
3.816935, -0.000051, 0.000093 ,0.000008
3.817220, -0.000051, 0.000093 ,0.000008
3.817507, -0.000051, 0.000094 ,0.000008
3.817795, -0.000052, 0.000094 ,0.000008
3.818085, -0.000052, 0.000094 ,0.000008
3.818377, -0.000052, 0.000095 ,0.000007
3.818671, -0.000052, 0.000095 ,0.000007
3.818967, -0.000052, 0.000096 ,0.000007
3.819264, -0.000053, 0.000096 ,0.000007
3.819563, -0.000053, 0.000097 ,0.000007
3.819864, -0.000053, 0.000097 ,0.000006
3.820166, -0.000053, 0.000098 ,0.000006
3.820470, -0.000054, 0.000098 ,0.000006
3.820775, -0.000054, 0.000099 ,0.000006
3.821082, -0.000054, 0.000099 ,0.000006
3.821391, -0.000054, 0.000100 ,0.000005
3.821701, -0.000055, 0.000100 ,0.000005
3.822013, -0.000055, 0.000101 ,0.000005
3.822325, -0.000055, 0.000101 ,0.000005
3.822640, -0.000055, 0.000101 ,0.000005
3.822956, -0.000056, 0.000102 ,0.000004
3.823273, -0.000056, 0.000102 ,0.000004
3.823592, -0.000056, 0.000103 ,0.000004
3.823912, -0.000056, 0.000103 ,0.000004
3.824234, -0.000057, 0.000104 ,0.000004
3.824556, -0.000057, 0.000104 ,0.000003
3.824880, -0.000057, 0.000105 ,0.000003
3.825205, -0.000057, 0.000105 ,0.000003
3.825531, -0.000057, 0.000106 ,0.000003
3.825859, -0.000058, 0.000106 ,0.000003
3.826187, -0.000058, 0.000107 ,0.000002
3.826518, -0.000058, 0.000107 ,0.000002
3.826849, -0.000058, 0.000107 ,0.000002
3.827181, -0.000059, 0.000108 ,0.000002
3.827514, -0.000059, 0.000108 ,0.000001
3.827848, -0.000059, 0.000109 ,0.000001
3.828183, -0.000059, 0.000109 ,0.000001
3.828519, -0.000060, 0.000110 ,0.000001
3.828856, -0.000060, 0.000110 ,0.000001
3.829194, -0.000060, 0.000111 ,0.000000
3.829533, -0.000060, 0.000111 ,0.000000
3.829873, -0.000060, 0.000111 ,-0.000000
3.830214, -0.000061, 0.000112 ,-0.000000
3.830555, -0.000061, 0.000112 ,-0.000000
3.830898, -0.000061, 0.000113 ,-0.000001
3.831241, -0.000061, 0.000113 ,-0.000001
3.831585, -0.000062, 0.000114 ,-0.000001
3.831929, -0.000062, 0.000114 ,-0.000001
3.832275, -0.000062, 0.000115 ,-0.000002
3.832621, -0.000062, 0.000115 ,-0.000002
3.832968, -0.000062, 0.000115 ,-0.000002
3.833314, -0.000063, 0.000116 ,-0.000002
3.833663, -0.000063, 0.000116 ,-0.000002
3.834011, -0.000063, 0.000117 ,-0.000003
3.834360, -0.000063, 0.000117 ,-0.000003
3.834709, -0.000063, 0.000118 ,-0.000003
3.835059, -0.000064, 0.000118 ,-0.000003
3.835409, -0.000064, 0.000118 ,-0.000003
3.835760, -0.000064, 0.000119 ,-0.000004
3.836112, -0.000064, 0.000119 ,-0.000004
3.836463, -0.000065, 0.000120 ,-0.000004
3.836815, -0.000065, 0.000120 ,-0.000004
3.837168, -0.000065, 0.000121 ,-0.000005
3.837520, -0.000065, 0.000121 ,-0.000005
3.837873, -0.000065, 0.000121 ,-0.000005
3.838227, -0.000066, 0.000122 ,-0.000005
3.838580, -0.000066, 0.000122 ,-0.000005
3.838933, -0.000066, 0.000123 ,-0.000006
3.839287, -0.000066, 0.000123 ,-0.000006
3.839641, -0.000066, 0.000124 ,-0.000006
3.839995, -0.000067, 0.000124 ,-0.000006
3.840349, -0.000067, 0.000124 ,-0.000006
3.840703, -0.000067, 0.000125 ,-0.000007
3.841057, -0.000067, 0.000125 ,-0.000007
3.841411, -0.000068, 0.000126 ,-0.000007
3.841766, -0.000068, 0.000126 ,-0.000007
3.842120, -0.000068, 0.000127 ,-0.000008
3.842474, -0.000068, 0.000127 ,-0.000008
3.842828, -0.000068, 0.000127 ,-0.000008
3.843182, -0.000069, 0.000128 ,-0.000008
3.843535, -0.000069, 0.000128 ,-0.000008
3.843889, -0.000069, 0.000129 ,-0.000009
3.844242, -0.000069, 0.000129 ,-0.000009
3.844595, -0.000069, 0.000129 ,-0.000009
3.844948, -0.000070, 0.000130 ,-0.000009
3.845300, -0.000070, 0.000130 ,-0.000009
3.845653, -0.000070, 0.000131 ,-0.000010
3.846005, -0.000070, 0.000131 ,-0.000010
3.846356, -0.000070, 0.000132 ,-0.000010
3.846707, -0.000071, 0.000132 ,-0.000010
3.847058, -0.000071, 0.000132 ,-0.000011
3.847408, -0.000071, 0.000133 ,-0.000011
3.847758, -0.000071, 0.000133 ,-0.000011
3.848107, -0.000071, 0.000134 ,-0.000011
3.848456, -0.000072, 0.000134 ,-0.000011
3.848804, -0.000072, 0.000134 ,-0.000012
3.849152, -0.000072, 0.000135 ,-0.000012
3.849499, -0.000072, 0.000135 ,-0.000012
3.849845, -0.000072, 0.000136 ,-0.000012
3.850191, -0.000073, 0.000136 ,-0.000012
3.850536, -0.000073, 0.000137 ,-0.000013
3.850880, -0.000073, 0.000137 ,-0.000013
3.851224, -0.000073, 0.000137 ,-0.000013
3.851566, -0.000073, 0.000138 ,-0.000013
3.851909, -0.000074, 0.000138 ,-0.000013
3.852250, -0.000074, 0.000139 ,-0.000014
3.852590, -0.000074, 0.000139 ,-0.000014
3.852930, -0.000074, 0.000139 ,-0.000014
3.853268, -0.000074, 0.000140 ,-0.000014
3.853606, -0.000075, 0.000140 ,-0.000014
3.853942, -0.000075, 0.000141 ,-0.000015
3.854278, -0.000075, 0.000141 ,-0.000015
3.854613, -0.000075, 0.000141 ,-0.000015
3.854947, -0.000075, 0.000142 ,-0.000015
3.855280, -0.000076, 0.000142 ,-0.000016
3.855611, -0.000076, 0.000143 ,-0.000016
3.855941, -0.000076, 0.000143 ,-0.000016
3.856271, -0.000076, 0.000143 ,-0.000016
3.856599, -0.000076, 0.000144 ,-0.000016
3.856926, -0.000077, 0.000144 ,-0.000017
3.857252, -0.000077, 0.000145 ,-0.000017
3.857576, -0.000077, 0.000145 ,-0.000017
3.857899, -0.000077, 0.000145 ,-0.000017
3.858222, -0.000077, 0.000146 ,-0.000017
3.858542, -0.000078, 0.000146 ,-0.000018
3.858861, -0.000078, 0.000147 ,-0.000018
3.859179, -0.000078, 0.000147 ,-0.000018
3.859496, -0.000078, 0.000147 ,-0.000018
3.859811, -0.000078, 0.000148 ,-0.000018
3.860125, -0.000078, 0.000148 ,-0.000019
3.860437, -0.000079, 0.000149 ,-0.000019
3.860748, -0.000079, 0.000149 ,-0.000019
3.861057, -0.000079, 0.000149 ,-0.000019
3.861365, -0.000079, 0.000150 ,-0.000019
3.861670, -0.000079, 0.000150 ,-0.000020
3.861975, -0.000080, 0.000151 ,-0.000020
3.862279, -0.000080, 0.000151 ,-0.000020
3.862580, -0.000080, 0.000151 ,-0.000020
3.862879, -0.000080, 0.000152 ,-0.000020
3.863177, -0.000080, 0.000152 ,-0.000020
3.863474, -0.000081, 0.000153 ,-0.000021
3.863768, -0.000081, 0.000153 ,-0.000021
3.864061, -0.000081, 0.000153 ,-0.000021
3.864352, -0.000081, 0.000154 ,-0.000021
3.864641, -0.000081, 0.000154 ,-0.000021
3.864928, -0.000082, 0.000155 ,-0.000022
3.865213, -0.000082, 0.000155 ,-0.000022
3.865497, -0.000082, 0.000155 ,-0.000022
3.865778, -0.000082, 0.000156 ,-0.000022
3.866058, -0.000082, 0.000156 ,-0.000022
3.866336, -0.000083, 0.000157 ,-0.000023
3.866612, -0.000083, 0.000157 ,-0.000023
3.866885, -0.000083, 0.000157 ,-0.000023
3.867157, -0.000083, 0.000158 ,-0.000023
3.867427, -0.000083, 0.000158 ,-0.000023
3.867695, -0.000084, 0.000159 ,-0.000023
3.867960, -0.000084, 0.000159 ,-0.000024
3.868223, -0.000084, 0.000159 ,-0.000024
3.868484, -0.000084, 0.000160 ,-0.000024
3.868743, -0.000084, 0.000160 ,-0.000024
3.869000, -0.000085, 0.000161 ,-0.000024
3.869255, -0.000085, 0.000161 ,-0.000025
3.869508, -0.000085, 0.000161 ,-0.000025
3.869758, -0.000085, 0.000162 ,-0.000025
3.870005, -0.000085, 0.000162 ,-0.000025
3.870251, -0.000086, 0.000163 ,-0.000025
3.870494, -0.000086, 0.000163 ,-0.000025
3.870735, -0.000086, 0.000164 ,-0.000026
3.870974, -0.000086, 0.000164 ,-0.000026
3.871210, -0.000086, 0.000164 ,-0.000026
3.871444, -0.000087, 0.000165 ,-0.000026
3.871675, -0.000087, 0.000165 ,-0.000026
3.871905, -0.000087, 0.000166 ,-0.000026
3.872131, -0.000087, 0.000166 ,-0.000027
3.872355, -0.000087, 0.000166 ,-0.000027
3.872576, -0.000088, 0.000167 ,-0.000027
3.872795, -0.000088, 0.000167 ,-0.000027
3.873011, -0.000088, 0.000168 ,-0.000027
3.873225, -0.000088, 0.000168 ,-0.000027
3.873436, -0.000088, 0.000168 ,-0.000028
3.873645, -0.000089, 0.000169 ,-0.000028
3.873851, -0.000089, 0.000169 ,-0.000028
3.874054, -0.000089, 0.000170 ,-0.000028
3.874254, -0.000089, 0.000170 ,-0.000028
3.874452, -0.000089, 0.000170 ,-0.000028
3.874648, -0.000090, 0.000171 ,-0.000029
3.874840, -0.000090, 0.000171 ,-0.000029
3.875029, -0.000090, 0.000172 ,-0.000029
3.875216, -0.000090, 0.000172 ,-0.000029
3.875400, -0.000090, 0.000172 ,-0.000029
3.875582, -0.000091, 0.000173 ,-0.000029
3.875760, -0.000091, 0.000173 ,-0.000029
3.875935, -0.000091, 0.000174 ,-0.000030
3.876108, -0.000091, 0.000174 ,-0.000030
3.876278, -0.000091, 0.000175 ,-0.000030
3.876445, -0.000092, 0.000175 ,-0.000030
3.876609, -0.000092, 0.000175 ,-0.000030
3.876770, -0.000092, 0.000176 ,-0.000030
3.876928, -0.000092, 0.000176 ,-0.000030
3.877082, -0.000092, 0.000177 ,-0.000031
3.877234, -0.000093, 0.000177 ,-0.000031
3.877383, -0.000093, 0.000177 ,-0.000031
3.877529, -0.000093, 0.000178 ,-0.000031
3.877672, -0.000093, 0.000178 ,-0.000031
3.877812, -0.000093, 0.000179 ,-0.000031
3.877949, -0.000094, 0.000179 ,-0.000031
3.878083, -0.000094, 0.000180 ,-0.000032
3.878213, -0.000094, 0.000180 ,-0.000032
3.878341, -0.000094, 0.000180 ,-0.000032
3.878465, -0.000095, 0.000181 ,-0.000032
3.878586, -0.000095, 0.000181 ,-0.000032
3.878704, -0.000095, 0.000182 ,-0.000032
3.878819, -0.000095, 0.000182 ,-0.000032
3.878930, -0.000095, 0.000183 ,-0.000033
3.879039, -0.000096, 0.000183 ,-0.000033
3.879144, -0.000096, 0.000183 ,-0.000033
3.879246, -0.000096, 0.000184 ,-0.000033
3.879344, -0.000096, 0.000184 ,-0.000033
3.879439, -0.000096, 0.000185 ,-0.000033
3.879531, -0.000097, 0.000185 ,-0.000033
3.879620, -0.000097, 0.000186 ,-0.000033
3.879705, -0.000097, 0.000186 ,-0.000033
3.879787, -0.000097, 0.000186 ,-0.000034
3.879866, -0.000098, 0.000187 ,-0.000034
3.879941, -0.000098, 0.000187 ,-0.000034
3.880013, -0.000098, 0.000188 ,-0.000034
3.880081, -0.000098, 0.000188 ,-0.000034
3.880146, -0.000098, 0.000189 ,-0.000034
3.880208, -0.000099, 0.000189 ,-0.000034
3.880266, -0.000099, 0.000189 ,-0.000034
3.880321, -0.000099, 0.000190 ,-0.000034
3.880372, -0.000099, 0.000190 ,-0.000035
3.880420, -0.000100, 0.000191 ,-0.000035
3.880464, -0.000100, 0.000191 ,-0.000035
3.880505, -0.000100, 0.000192 ,-0.000035
3.880543, -0.000100, 0.000192 ,-0.000035
3.880576, -0.000101, 0.000193 ,-0.000035
3.880606, -0.000101, 0.000193 ,-0.000035
3.880633, -0.000101, 0.000193 ,-0.000035
3.880657, -0.000101, 0.000194 ,-0.000035
3.880676, -0.000101, 0.000194 ,-0.000035
3.880693, -0.000102, 0.000195 ,-0.000036
3.880705, -0.000102, 0.000195 ,-0.000036
3.880714, -0.000102, 0.000196 ,-0.000036
3.880719, -0.000102, 0.000196 ,-0.000036
3.880721, -0.000103, 0.000197 ,-0.000036
3.880719, -0.000103, 0.000197 ,-0.000036
3.880714, -0.000103, 0.000197 ,-0.000036
3.880705, -0.000103, 0.000198 ,-0.000036
3.880692, -0.000104, 0.000198 ,-0.000036
3.880676, -0.000104, 0.000199 ,-0.000036
3.880656, -0.000104, 0.000199 ,-0.000036
3.880632, -0.000104, 0.000200 ,-0.000036
3.880605, -0.000105, 0.000200 ,-0.000037
3.880574, -0.000105, 0.000201 ,-0.000037
3.880539, -0.000105, 0.000201 ,-0.000037
3.880501, -0.000105, 0.000202 ,-0.000037
3.880459, -0.000106, 0.000202 ,-0.000037
3.880413, -0.000106, 0.000203 ,-0.000037
3.880364, -0.000106, 0.000203 ,-0.000037
3.880311, -0.000106, 0.000204 ,-0.000037
3.880254, -0.000107, 0.000204 ,-0.000037
3.880194, -0.000107, 0.000204 ,-0.000037
3.880130, -0.000107, 0.000205 ,-0.000037
3.880061, -0.000107, 0.000205 ,-0.000037
3.879990, -0.000108, 0.000206 ,-0.000037
3.879914, -0.000108, 0.000206 ,-0.000037
3.879835, -0.000108, 0.000207 ,-0.000037
3.879753, -0.000108, 0.000207 ,-0.000037
3.879666, -0.000109, 0.000208 ,-0.000037
3.879576, -0.000109, 0.000208 ,-0.000037
3.879482, -0.000109, 0.000209 ,-0.000038
3.879384, -0.000109, 0.000209 ,-0.000038
3.879282, -0.000110, 0.000210 ,-0.000038
3.879177, -0.000110, 0.000210 ,-0.000038
3.879069, -0.000110, 0.000211 ,-0.000038
3.878956, -0.000110, 0.000211 ,-0.000038
3.878839, -0.000111, 0.000212 ,-0.000038
3.878719, -0.000111, 0.000212 ,-0.000038
3.878596, -0.000111, 0.000213 ,-0.000038
3.878467, -0.000111, 0.000213 ,-0.000038
3.878336, -0.000112, 0.000214 ,-0.000038
3.878201, -0.000112, 0.000214 ,-0.000038
3.878062, -0.000112, 0.000215 ,-0.000038
3.877920, -0.000112, 0.000215 ,-0.000038
3.877774, -0.000113, 0.000216 ,-0.000038
3.877623, -0.000113, 0.000216 ,-0.000038
3.877469, -0.000113, 0.000217 ,-0.000038
3.877312, -0.000114, 0.000217 ,-0.000038
3.877151, -0.000114, 0.000218 ,-0.000038
3.876986, -0.000114, 0.000218 ,-0.000038
3.876817, -0.000114, 0.000219 ,-0.000038
3.876644, -0.000115, 0.000219 ,-0.000038
3.876469, -0.000115, 0.000220 ,-0.000038
3.876289, -0.000115, 0.000220 ,-0.000038
3.876105, -0.000116, 0.000221 ,-0.000038
3.875918, -0.000116, 0.000221 ,-0.000038
3.875727, -0.000116, 0.000222 ,-0.000038
3.875533, -0.000116, 0.000222 ,-0.000038
3.875335, -0.000117, 0.000223 ,-0.000038
3.875133, -0.000117, 0.000223 ,-0.000038
3.874927, -0.000117, 0.000224 ,-0.000038
3.874718, -0.000117, 0.000224 ,-0.000038
3.874506, -0.000118, 0.000225 ,-0.000038
3.874290, -0.000118, 0.000225 ,-0.000038
3.874069, -0.000118, 0.000226 ,-0.000038
3.873846, -0.000119, 0.000226 ,-0.000038
3.873618, -0.000119, 0.000227 ,-0.000038
3.873388, -0.000119, 0.000227 ,-0.000038
3.873154, -0.000120, 0.000228 ,-0.000037
3.872916, -0.000120, 0.000229 ,-0.000037
3.872674, -0.000120, 0.000229 ,-0.000037
3.872429, -0.000120, 0.000230 ,-0.000037
3.872181, -0.000121, 0.000230 ,-0.000037
3.871929, -0.000121, 0.000231 ,-0.000037
3.871673, -0.000121, 0.000231 ,-0.000037
3.871414, -0.000122, 0.000232 ,-0.000037
3.871152, -0.000122, 0.000232 ,-0.000037
3.870885, -0.000122, 0.000233 ,-0.000037
3.870616, -0.000122, 0.000233 ,-0.000037
3.870344, -0.000123, 0.000234 ,-0.000037
3.870067, -0.000123, 0.000234 ,-0.000037
3.869787, -0.000123, 0.000235 ,-0.000037
3.869504, -0.000124, 0.000236 ,-0.000037
3.869218, -0.000124, 0.000236 ,-0.000037
3.868928, -0.000124, 0.000237 ,-0.000036
3.868635, -0.000125, 0.000237 ,-0.000036
3.868338, -0.000125, 0.000238 ,-0.000036
3.868038, -0.000125, 0.000238 ,-0.000036
3.867735, -0.000126, 0.000239 ,-0.000036
3.867429, -0.000126, 0.000239 ,-0.000036
3.867120, -0.000126, 0.000240 ,-0.000036
3.866806, -0.000126, 0.000240 ,-0.000036
3.866491, -0.000127, 0.000241 ,-0.000036
3.866171, -0.000127, 0.000242 ,-0.000036
3.865849, -0.000127, 0.000242 ,-0.000035
3.865524, -0.000128, 0.000243 ,-0.000035
3.865195, -0.000128, 0.000243 ,-0.000035
3.864863, -0.000128, 0.000244 ,-0.000035
3.864529, -0.000129, 0.000244 ,-0.000035
3.864191, -0.000129, 0.000245 ,-0.000035
3.863850, -0.000129, 0.000246 ,-0.000035
3.863506, -0.000130, 0.000246 ,-0.000035
3.863159, -0.000130, 0.000247 ,-0.000034
3.862809, -0.000130, 0.000247 ,-0.000034
3.862456, -0.000131, 0.000248 ,-0.000034
3.862101, -0.000131, 0.000248 ,-0.000034
3.861742, -0.000131, 0.000249 ,-0.000034
3.861381, -0.000132, 0.000250 ,-0.000034
3.861017, -0.000132, 0.000250 ,-0.000034
3.860650, -0.000132, 0.000251 ,-0.000033
3.860280, -0.000133, 0.000251 ,-0.000033
3.859907, -0.000133, 0.000252 ,-0.000033
3.859532, -0.000133, 0.000252 ,-0.000033
3.859154, -0.000134, 0.000253 ,-0.000033
3.858773, -0.000134, 0.000254 ,-0.000032
3.858391, -0.000134, 0.000254 ,-0.000032
3.858004, -0.000135, 0.000255 ,-0.000032
3.857616, -0.000135, 0.000255 ,-0.000032
3.857225, -0.000135, 0.000256 ,-0.000032
3.856832, -0.000136, 0.000257 ,-0.000032
3.856436, -0.000136, 0.000257 ,-0.000031
3.856038, -0.000136, 0.000258 ,-0.000031
3.855637, -0.000137, 0.000258 ,-0.000031
3.855234, -0.000137, 0.000259 ,-0.000031
3.854829, -0.000137, 0.000259 ,-0.000030
3.854421, -0.000138, 0.000260 ,-0.000030
3.854012, -0.000138, 0.000261 ,-0.000030
3.853600, -0.000138, 0.000261 ,-0.000030
3.853185, -0.000139, 0.000262 ,-0.000030
3.852768, -0.000139, 0.000262 ,-0.000029
3.852350, -0.000139, 0.000263 ,-0.000029
3.851930, -0.000140, 0.000264 ,-0.000029
3.851507, -0.000140, 0.000264 ,-0.000029
3.851083, -0.000140, 0.000265 ,-0.000028
3.850656, -0.000141, 0.000265 ,-0.000028
3.850228, -0.000141, 0.000266 ,-0.000028
3.849798, -0.000141, 0.000267 ,-0.000028
3.849366, -0.000142, 0.000267 ,-0.000027
3.848932, -0.000142, 0.000268 ,-0.000027
3.848496, -0.000142, 0.000268 ,-0.000027
3.848059, -0.000143, 0.000269 ,-0.000027
3.847620, -0.000143, 0.000270 ,-0.000026
3.847180, -0.000143, 0.000270 ,-0.000026
3.846738, -0.000144, 0.000271 ,-0.000026
3.846294, -0.000144, 0.000271 ,-0.000025
3.845850, -0.000144, 0.000272 ,-0.000025
3.845403, -0.000145, 0.000273 ,-0.000025
3.844955, -0.000145, 0.000273 ,-0.000024
3.844507, -0.000145, 0.000274 ,-0.000024
3.844056, -0.000146, 0.000274 ,-0.000024
3.843605, -0.000146, 0.000275 ,-0.000023
3.843152, -0.000146, 0.000276 ,-0.000023
3.842698, -0.000147, 0.000276 ,-0.000023
3.842243, -0.000147, 0.000277 ,-0.000022
3.841788, -0.000147, 0.000277 ,-0.000022
3.841331, -0.000148, 0.000278 ,-0.000022
3.840873, -0.000148, 0.000279 ,-0.000021
3.840414, -0.000148, 0.000279 ,-0.000021
3.839955, -0.000149, 0.000280 ,-0.000021
3.839495, -0.000149, 0.000280 ,-0.000020
3.839035, -0.000149, 0.000281 ,-0.000020
3.838573, -0.000150, 0.000282 ,-0.000020
3.838111, -0.000150, 0.000282 ,-0.000019
3.837648, -0.000150, 0.000283 ,-0.000019
3.837186, -0.000151, 0.000283 ,-0.000018
3.836722, -0.000151, 0.000284 ,-0.000018
3.836259, -0.000151, 0.000285 ,-0.000018
3.835795, -0.000152, 0.000285 ,-0.000017
3.835330, -0.000152, 0.000286 ,-0.000017
3.834867, -0.000152, 0.000286 ,-0.000016
3.834403, -0.000153, 0.000287 ,-0.000016
3.833938, -0.000153, 0.000288 ,-0.000016
3.833474, -0.000153, 0.000288 ,-0.000015
3.833010, -0.000154, 0.000289 ,-0.000015
3.832546, -0.000154, 0.000289 ,-0.000014
3.832082, -0.000154, 0.000290 ,-0.000014
3.831618, -0.000155, 0.000291 ,-0.000013
3.831155, -0.000155, 0.000291 ,-0.000013
3.830692, -0.000155, 0.000292 ,-0.000013
3.830230, -0.000156, 0.000292 ,-0.000012
3.829769, -0.000156, 0.000293 ,-0.000012
3.829308, -0.000156, 0.000294 ,-0.000011
3.828848, -0.000157, 0.000294 ,-0.000011
3.828388, -0.000157, 0.000295 ,-0.000010
3.827929, -0.000157, 0.000295 ,-0.000010
3.827471, -0.000158, 0.000296 ,-0.000009
3.827015, -0.000158, 0.000296 ,-0.000009
3.826560, -0.000158, 0.000297 ,-0.000008
3.826105, -0.000159, 0.000298 ,-0.000008
3.825652, -0.000159, 0.000298 ,-0.000007
3.825200, -0.000159, 0.000299 ,-0.000007
3.824750, -0.000160, 0.000299 ,-0.000006
3.824301, -0.000160, 0.000300 ,-0.000006
3.823853, -0.000160, 0.000300 ,-0.000005
3.823407, -0.000160, 0.000301 ,-0.000004
3.822963, -0.000161, 0.000302 ,-0.000004
3.822520, -0.000161, 0.000302 ,-0.000003
3.822080, -0.000161, 0.000303 ,-0.000003
3.821641, -0.000162, 0.000303 ,-0.000002
3.821205, -0.000162, 0.000304 ,-0.000002
3.820771, -0.000162, 0.000304 ,-0.000001
3.820338, -0.000163, 0.000305 ,-0.000000
3.819908, -0.000163, 0.000305 ,0.000000
3.819481, -0.000163, 0.000306 ,0.000001
3.819056, -0.000163, 0.000306 ,0.000001
3.818633, -0.000164, 0.000307 ,0.000002
3.818213, -0.000164, 0.000308 ,0.000003
3.817796, -0.000164, 0.000308 ,0.000003
3.817381, -0.000165, 0.000309 ,0.000004
3.816970, -0.000165, 0.000309 ,0.000004
3.816561, -0.000165, 0.000310 ,0.000005
3.816155, -0.000165, 0.000310 ,0.000006
3.815753, -0.000166, 0.000311 ,0.000006
3.815354, -0.000166, 0.000311 ,0.000007
3.814959, -0.000166, 0.000312 ,0.000008
3.814566, -0.000166, 0.000312 ,0.000008
3.814177, -0.000167, 0.000313 ,0.000009
3.813792, -0.000167, 0.000313 ,0.000010
3.813411, -0.000167, 0.000314 ,0.000010
3.813033, -0.000167, 0.000314 ,0.000011
3.812660, -0.000168, 0.000315 ,0.000012
3.812290, -0.000168, 0.000315 ,0.000013
3.811925, -0.000168, 0.000316 ,0.000013
3.811564, -0.000168, 0.000316 ,0.000014
3.811208, -0.000169, 0.000317 ,0.000015
3.810855, -0.000169, 0.000317 ,0.000015
3.810507, -0.000169, 0.000317 ,0.000016
3.810164, -0.000169, 0.000318 ,0.000017
3.809825, -0.000170, 0.000318 ,0.000018
3.809492, -0.000170, 0.000319 ,0.000018
3.809164, -0.000170, 0.000319 ,0.000019
3.808840, -0.000170, 0.000320 ,0.000020
3.808522, -0.000170, 0.000320 ,0.000021
3.808209, -0.000171, 0.000320 ,0.000022
3.807902, -0.000171, 0.000321 ,0.000022
3.807600, -0.000171, 0.000321 ,0.000023
3.807303, -0.000171, 0.000322 ,0.000024
3.807013, -0.000171, 0.000322 ,0.000025
3.806728, -0.000171, 0.000322 ,0.000026
3.806449, -0.000172, 0.000323 ,0.000026
3.806177, -0.000172, 0.000323 ,0.000027
3.805910, -0.000172, 0.000324 ,0.000028
3.805650, -0.000172, 0.000324 ,0.000029
3.805397, -0.000172, 0.000324 ,0.000030
3.805149, -0.000172, 0.000325 ,0.000031
3.804909, -0.000173, 0.000325 ,0.000031
3.804676, -0.000173, 0.000325 ,0.000032
3.804449, -0.000173, 0.000326 ,0.000033
3.804229, -0.000173, 0.000326 ,0.000034
3.804017, -0.000173, 0.000326 ,0.000035
3.803812, -0.000173, 0.000327 ,0.000036
3.803614, -0.000173, 0.000327 ,0.000037
3.803424, -0.000173, 0.000327 ,0.000038
3.803241, -0.000173, 0.000328 ,0.000039
3.803067, -0.000174, 0.000328 ,0.000039
3.802900, -0.000174, 0.000328 ,0.000040
3.802742, -0.000174, 0.000328 ,0.000041
3.802591, -0.000174, 0.000329 ,0.000042
3.802449, -0.000174, 0.000329 ,0.000043
3.802315, -0.000174, 0.000329 ,0.000044
3.802190, -0.000174, 0.000329 ,0.000045
3.802073, -0.000174, 0.000330 ,0.000046
3.801966, -0.000174, 0.000330 ,0.000047
3.801867, -0.000174, 0.000330 ,0.000048
3.801778, -0.000174, 0.000330 ,0.000049
3.801698, -0.000174, 0.000330 ,0.000050
3.801627, -0.000174, 0.000331 ,0.000051
3.801566, -0.000174, 0.000331 ,0.000052
3.801514, -0.000174, 0.000331 ,0.000053
3.801472, -0.000174, 0.000331 ,0.000054
3.801441, -0.000174, 0.000331 ,0.000055
3.801419, -0.000174, 0.000331 ,0.000056
3.801408, -0.000174, 0.000332 ,0.000057
3.801406, -0.000174, 0.000332 ,0.000058
3.801415, -0.000174, 0.000332 ,0.000059
3.801436, -0.000174, 0.000332 ,0.000060
3.801466, -0.000174, 0.000332 ,0.000061
3.801509, -0.000174, 0.000332 ,0.000062
3.801562, -0.000174, 0.000332 ,0.000063
3.801626, -0.000174, 0.000332 ,0.000064
3.801702, -0.000174, 0.000332 ,0.000065
3.801789, -0.000173, 0.000332 ,0.000067
3.801888, -0.000173, 0.000332 ,0.000068
3.801999, -0.000173, 0.000332 ,0.000069
3.802122, -0.000173, 0.000332 ,0.000070
3.802257, -0.000173, 0.000332 ,0.000071
3.802405, -0.000173, 0.000332 ,0.000072
3.802564, -0.000173, 0.000332 ,0.000073
3.802737, -0.000173, 0.000332 ,0.000074
3.802923, -0.000172, 0.000332 ,0.000075
3.803121, -0.000172, 0.000332 ,0.000076
3.803332, -0.000172, 0.000332 ,0.000078
3.803557, -0.000172, 0.000332 ,0.000079
3.803795, -0.000172, 0.000332 ,0.000080
3.804047, -0.000171, 0.000332 ,0.000081
3.804312, -0.000171, 0.000331 ,0.000082
3.804592, -0.000171, 0.000331 ,0.000083
3.804885, -0.000171, 0.000331 ,0.000084
3.805193, -0.000170, 0.000331 ,0.000086
3.805516, -0.000170, 0.000331 ,0.000087
3.805852, -0.000170, 0.000331 ,0.000088
3.806204, -0.000170, 0.000330 ,0.000089
3.806571, -0.000169, 0.000330 ,0.000090
3.806952, -0.000169, 0.000330 ,0.000092
3.807349, -0.000169, 0.000330 ,0.000093
3.807761, -0.000168, 0.000329 ,0.000094
3.808189, -0.000168, 0.000329 ,0.000095
3.808633, -0.000168, 0.000329 ,0.000096
3.809092, -0.000167, 0.000328 ,0.000097
3.809568, -0.000167, 0.000328 ,0.000099
3.810060, -0.000166, 0.000328 ,0.000100
3.810569, -0.000166, 0.000327 ,0.000101
3.811094, -0.000166, 0.000327 ,0.000102
3.811635, -0.000165, 0.000327 ,0.000104
3.812194, -0.000165, 0.000326 ,0.000105
3.812771, -0.000164, 0.000326 ,0.000106
3.813364, -0.000164, 0.000325 ,0.000107
3.813975, -0.000163, 0.000325 ,0.000108
3.814604, -0.000163, 0.000324 ,0.000110
3.815250, -0.000163, 0.000324 ,0.000111
3.815915, -0.000162, 0.000324 ,0.000112
